channel,channel_idx,addicted_mean,healthy_mean,t_statistic,p_value,cohens_d,auc_score,discriminability,task
C3,13,76.0723996968794,205.5118610969371,-1.7669174362063387,0.10264076710445527,-1.020130257428769,0.22448979591836735,0.9154233052598147,EC
Cz,5,1.4742822554703834,7.969486264656447,-1.713323549063317,0.11234420373138872,-0.9891878122455663,0.36734693877551017,0.8780582951380437,EC
Fz,6,169.42856251229978,102.0196394429688,1.2309396654986104,0.24192698622838235,0.7106833472310613,0.673469387755102,0.5387498668727516,EC
P8,2,310.6875024068404,220.1206304381867,1.0685121274611036,0.30631329475049496,0.6169057644216279,0.6122448979591837,0.4279393271710664,EC
T7,14,176.70652337192746,225.30431659016787,-0.7345696646302183,0.47671145610841636,-0.4241039936124195,0.3877551020408163,0.2219287612760485,EC
Fp1,10,338.39000667076255,253.61342327403858,0.6735870713163011,0.5133390588266955,0.3888956769469397,0.5306122448979591,0.18926033616122706,EC
T8,3,173.1341078172696,196.46465371451038,-0.6033500554050975,0.5575082228994227,-0.3483443169031885,0.44897959183673475,0.15413949582937855,EC
P4,0,285.47866524028166,198.5855256202101,0.5563315844761745,0.5882084575115483,0.3211981900558916,0.36734693877551017,0.1322666981276145,EC
Fp2,8,356.64586534158855,291.20609363263554,0.5334516148136411,0.6034615028109631,0.3079884334121513,0.5510204081632653,0.12212927053686023,EC
Pz,18,57.39736046465547,33.40075007058145,0.5304962898014839,0.6054462619122227,0.3062821757205936,0.40816326530612246,0.12084477734021765,EC
F3,12,200.70064329222888,171.17575075555789,0.47598585015099787,0.6426329323137487,0.2748105587148757,0.5306122448979591,0.09820824353715552,EC
F7,11,216.00249973097178,238.64459675987536,-0.2784797061620969,0.7853847235666588,-0.1607803333164204,0.3061224489795918,0.034505915679748304,EC
F4,7,179.14228730329745,198.12499890619193,-0.23049554039600625,0.8215894296765861,-0.13307666229454918,0.44897959183673475,0.023742283216706867,EC
O1,17,325.1893654662362,295.9841621611154,0.22176170943886364,0.8282284293312978,0.12803418264042338,0.5918367346938775,0.021992632651429006,EC
P3,16,221.5409124895896,204.9636428668059,0.17661863681046472,0.8627537439117904,0.10197081750636385,0.40816326530612246,0.0139951129330025,EC
O2,1,364.85756578584557,357.5907889663139,0.054158481536888924,0.9577001145728707,0.03126841389421074,0.673469387755102,0.001322650325213171,EC
P7,15,286.69614777921595,290.76987368859665,-0.0392219364315692,0.9693584262859425,-0.022644795556892285,0.46938775510204084,0.000693872172296277,EC
C4,4,82.10841699279793,80.94554150033234,0.028087628696080915,0.9780539752739159,0.01621639998855796,0.3469387755102041,0.00035588551511696277,EC
F8,9,253.32318249215882,255.4564374165358,-0.022567081883599023,0.9823665163820728,-0.013029110800312266,0.4285714285714286,0.00022974861185346416,EC
C3,13,45.41005589473561,193.27844363533308,-2.2841004341825824,0.041370518048439234,-1.318726000530279,0.22448979591836737,1.264169622724395,EO
Cz,5,1.0171578086120876,8.480140951976546,-2.0043894243091547,0.06812819688443306,-1.157234773667785,0.32653061224489793,1.0783944551658338,EO
C4,4,44.049671438363,82.13095377914344,-1.3093741613463294,0.214924200557246,-0.7559675245217431,0.30612244897959184,0.5934918086666672,EO
P4,0,92.25807017833667,167.7462073122454,-1.119299521238953,0.2849167585019906,-0.6462278798905755,0.22448979591836735,0.462106727098539,EO
Fz,6,174.7007582098375,121.88258072336929,0.9944994390026417,0.33961088061439215,0.5741745188164828,0.653061224489796,0.37917860485487226,EO
P8,2,167.75478294261808,127.02868821848098,0.8969505402910877,0.38738620085747,0.5178546358861813,0.6938775510204082,0.31724489589380506,EO
F4,7,138.7967642996112,192.08856598724722,-0.832348381771048,0.4214685549428687,-0.48055656227463056,0.40816326530612246,0.2780170824044293,EO
T8,3,130.18783108759675,162.34365845396297,-0.7115913122125453,0.4903204588724345,-0.4108374356583872,0.3877551020408163,0.2093954356843925,EO
P3,16,93.6241434437201,119.46044691413489,-0.49521479031801724,0.6293919907892522,-0.28591239249647493,0.326530612244898,0.10596142259180051,EO
Pz,18,26.00205125300035,17.83682140375418,0.4351701543383407,0.6711627111008514,0.25124560574975896,0.36734693877551017,0.08261892384257509,EO
F8,9,211.90536461937353,232.10614018133546,-0.39325833489223017,0.7010259414372837,-0.22704780551083786,0.4489795918367347,0.06788140390133346,EO
P7,15,161.6817909459513,143.99977494918363,0.2894598353492823,0.7771698340144917,0.16711971385833496,0.5714285714285714,0.037239313578503436,EO
Fp2,8,388.86137928052193,410.5888694885827,-0.18980760404960859,0.8526327120185944,-0.10958547129222417,0.4285714285714285,0.01614931370649926,EO
Fp1,10,439.1195802930969,467.8679857392186,-0.18021033569277417,0.8599949195564481,-0.10404448582293835,0.4897959183673469,0.014566756607348475,EO
F7,11,209.23348549076476,200.3001227774325,0.10758219461651411,0.9161049176732274,0.062112609021811954,0.40816326530612246,0.0052109424474155504,EO
O1,17,136.23485036605564,131.42263783798484,0.08203610741122926,0.9359704699450586,0.04736356869709565,0.5306122448979592,0.003032667045399967,EO
O2,1,165.1738330880283,162.65869243755267,0.04113291210902519,0.9678663946734457,0.02374809787867649,0.5306122448979591,0.0007631120044897715,EO
F3,12,162.90349146207586,162.4934709529144,0.007764682120716383,0.9939323349385181,0.004482941312562576,0.42857142857142855,2.7200986374909892e-05,EO
T7,14,145.1097177630475,145.0575480234331,0.0010402069660978006,0.9991871277097468,0.0006005637718887979,0.36734693877551017,4.881816486983325e-07,EO
C3,13,46.028223129105605,182.39063531432933,-2.1831718217926563,0.04961118962210092,-1.2604548389980308,0.22448979591836737,1.1979221749704048,H
C4,4,42.97103902813931,99.88292240034727,-1.8830112329530406,0.08415908989820782,-1.0871570422304502,0.26530612244897955,0.995662894979908,H
Fp2,8,387.0827646440309,610.6327258713014,-1.660297633627083,0.12273905756371432,-0.9585732857090841,0.20408163265306123,0.840918904015398,H
Cz,5,1.1264194655444029,6.397164892221016,-1.5088371278123154,0.1572111999011749,-0.8711275218913445,0.3469387755102041,0.7341765189078692,H
T8,3,107.87740458151526,165.61671849733594,-1.3202382994716988,0.21138436201721092,-0.7622399375934327,0.2857142857142857,0.6011143346812062,H
P8,2,188.4250842243719,123.38837929297343,1.2688114139607813,0.22856808977617707,0.7325486114003017,0.7142857142857143,0.5651113746243437,H
P3,16,58.787962878836176,100.71644984220053,-1.1660373513933726,0.26625192317653834,-0.673211978711041,0.24489795918367346,0.4939679946737435,H
Fz,6,154.0572918521832,98.69386406957305,0.939437445131024,0.36603188981568224,0.5423844618326796,0.673469387755102,0.34385445226140215,H
F8,9,197.61894011854642,246.95461595511802,-0.9099344742311712,0.380770897449097,-0.5253509136417279,0.326530612244898,0.32531257477866415,H
O1,17,130.97650448057126,185.4498832957742,-0.7848469079576411,0.4477612671250807,-0.45313157358161266,0.326530612244898,0.25023680602032805,H
Fp1,10,462.01146163101424,605.9972953051708,-0.7309066316415618,0.4788651514297253,-0.42198914053061465,0.36734693877551017,0.21991324684872224,H
P4,0,99.222189048199,150.48525400920107,-0.7240604401155631,0.4829064456497171,-0.4180364900099384,0.2857142857142857,0.2161639744673556,H
F4,7,139.07785339454838,178.9435991653568,-0.6417841412672904,0.5330813364089002,-0.3705342467219585,0.40816326530612246,0.1730093552941517,H
Pz,18,20.759416074119002,13.207647267310021,0.5615945214995156,0.584728516881603,0.3242367481617723,0.489795918367347,0.13464627529062537,H
P7,15,161.11077199682103,131.0280517574776,0.5410661537938467,0.5983629471185241,0.3123846895419485,0.5306122448979592,0.125465266072923,H
O2,1,158.76235620431075,141.24962656206452,0.4369330334281804,0.6699189227376479,0.25226340446723633,0.5510204081632654,0.08326737630041382,H
F7,11,204.49855148452366,191.9666817338623,0.21598862786550632,0.8326244784919036,0.12470109243992389,0.40816326530612246,0.0208719103797616,H
T7,14,131.10237771000587,135.2355091634581,-0.09034824046793687,0.9295010299048225,-0.05216258095490656,0.36734693877551017,0.003677408234827231,H
F3,12,170.27276032517779,174.93685405224778,-0.08011021786154764,0.9374701138832209,-0.04625165584715823,0.4285714285714286,0.0028921107728352652,H
C3,13,41.52959593768872,172.17059485709538,-2.5627690623925186,0.024874443589700482,-1.4796154080414894,0.10204081632653061,1.4428107980397098,C
P8,2,186.6114297583267,122.78770933367902,1.706475814127453,0.11364114717120205,0.9852342706505499,0.6938775510204082,0.873271117901439,C
Fp2,8,410.7773904698217,634.547592224411,-1.7000280389157625,0.11487447628097769,-0.9815116458974967,0.28571428571428575,0.8687610096113414,C
Cz,5,1.1364891499191176,5.641229545728193,-1.5213053609915759,0.15408796128392743,-0.8783260596709817,0.42857142857142855,0.7429865877937349,C
O1,17,119.22773460849204,210.06850962288718,-1.2996344918040323,0.21813849695754758,-0.7503443236905607,0.30612244897959184,0.5866653407200743,C
C4,4,44.09326322910416,217.55523064930074,-1.169287649805665,0.26498999033604737,-0.675088539375143,0.30612244897959184,0.49619683385014757,C
Fz,6,168.89429924312586,110.78612664286145,1.0482479681837436,0.3151788360562007,0.6052062466077323,0.6326530612244898,0.4144580462279653,C
T8,3,126.68619863192306,169.45853451079603,-1.0020437231887616,0.33610079876582133,-0.5785302133220238,0.3877551020408163,0.3840857465143306,C
Fp1,10,454.13092936817065,582.5472669387743,-0.7613547012638217,0.46114606381487944,-0.43956834172330406,0.3877551020408163,0.23686313115996854,C
P4,0,89.40802397308188,115.8037279420045,-0.44156310418094213,0.6666570765218858,-0.25493657706282746,0.32653061224489793,0.08498130389962646,C
Pz,18,20.661699840277098,15.396291221223015,0.4120181235648998,0.6875907622060217,0.23787877455012474,0.40816326530612246,0.07431552664457008,C
F7,11,202.62106972381054,226.11037329461573,-0.39541168029298124,0.699478297796514,-0.22829104005765308,0.3673469387755102,0.0686064119559301,C
F8,9,197.920439213457,217.13482006271252,-0.38531978974083264,0.7067435668560926,-0.22246448433070215,0.3877551020408163,0.06523914117602038,C
F3,12,139.59736080169426,153.09124150589497,-0.3137219400962788,0.7591186935574229,-0.18112744656503507,0.3877551020408163,0.04363021596119372,C
P3,16,66.47730000797524,73.06930379331297,-0.2439452233857171,0.8113940262764123,-0.14084184038896624,0.32653061224489793,0.026563612447583096,C
F4,7,134.20612097845193,143.37515489719584,-0.16908711952220853,0.8685448854302487,-0.09762249397254157,0.44897959183673464,0.012832976129745311,C
T7,14,124.60612702602668,131.23027023511807,-0.14132697167065703,0.889956462662219,-0.08159516513770794,0.24489795918367346,0.008979020601413774,C
O2,1,152.39280980865712,158.111582769285,-0.11781322902606453,0.9081646711184863,-0.06801949949221649,0.4285714285714286,0.006246593106223655,C
P7,15,129.09035727747528,125.37853724780815,0.0790809699289036,0.9382716676346121,0.04565741927617303,0.46938775510204084,0.002818356352025476,C
C3,13,43.690246298857055,192.36005112451014,-2.4364403027488755,0.03136124087399991,-1.4066794646551857,0.12244897959183673,1.3625642511316252,S
T8,3,104.27835723920327,176.95766543495373,-1.8146146099880354,0.0946443467150187,-1.0476682335505099,0.22448979591836735,0.9485123580120443,S
Fp2,8,393.20245589512916,542.7387307595837,-1.6319777110847427,0.1286309842352205,-0.9422227708056521,0.2857142857142857,0.8210237284280845,S
P8,2,167.7242812695644,106.72055563624629,1.599807701954941,0.1356232706644374,0.9236494073739233,0.7755102040816326,0.7983810537986026,S
Cz,5,1.4116453658147823,6.58017263146738,-1.4563309136303528,0.17096314745160843,-0.8408130449999796,0.3469387755102041,0.6970650004084121,S
P3,16,58.59098482587343,96.51939190531753,-1.147209334196115,0.27365386947984693,-0.6623416179138216,0.30612244897959184,0.481089271254162,S
C4,4,43.11222610836535,320.89494876446133,-1.1051866759727424,0.29074512005941056,-0.638079824877504,0.2448979591836735,0.4525612295860065,S
O1,17,114.43847526223158,265.82664165900326,-1.1032247333387102,0.29156248960274284,-0.6369470967694896,0.3469387755102041,0.451237215490138,S
Pz,18,22.492717864512457,11.191131742465425,0.884947349112916,0.3935718084352303,0.510924590226678,0.6122448979591837,0.30983907527713533,S
F8,9,197.28718352758037,226.00689700882072,-0.8680143119724008,0.40241213014183985,-0.5011482966768389,0.36734693877551017,0.29948014309415744,S
F7,11,192.51125228232613,225.06127305506047,-0.7233125608374517,0.48334918180226905,-0.41760470170720443,0.346938775510204,0.21575581082024653,S
P4,0,75.65340537065988,60.42575663232509,0.658274024419113,0.5227910212769442,0.38005468519796465,0.5102040816326531,0.18136550818223318,S
F3,12,129.12221413074093,160.4935044453138,-0.6351715697124225,0.5372401344772098,-0.3667164767546356,0.34693877551020413,0.1697016674679666,S
F4,7,118.37449817504078,150.4740724353691,-0.6262877368186961,0.5428562463461217,-0.36158739344202834,0.40816326530612246,0.16529741831201056,S
Fz,6,142.1243192836481,130.1804388673197,0.19626847207487444,0.8476845910813248,0.11331565518575779,0.5306122448979592,0.0172597203565063,S
O2,1,155.21721710154478,147.59731339169122,0.1688940109232675,0.8686934770165089,0.09751100267093929,0.5102040816326531,0.012803830713354952,S
P7,15,131.91223683411206,126.79068489329306,0.116526118170935,0.9091630395207022,0.0672763856935231,0.5510204081632654,0.006111182388432552,S
T7,14,140.1198015049526,144.60588087118094,-0.09123231252625494,0.9288132461967512,-0.05267300019576351,0.3061224489795918,0.0037496198970142923,S
Fp1,10,458.8009532039511,465.5538083483328,-0.04309996927634432,0.966330709077908,-0.024883778863752825,0.42857142857142855,0.0008378191898046986,S
C3,13,41.07062067951931,167.62841304994467,-2.448104515596039,0.03069945981263152,-1.413413801082133,0.18367346938775514,1.3700227608971933,F
P8,2,187.31523864430642,109.53506565028879,1.7285181989851777,0.10951328599874385,0.9979604474819791,0.7551020408163265,0.8886705195814507,F
Cz,5,0.8633949777653053,4.751584415395259,-1.5946909321961342,0.13676544922053535,-0.9206952389558919,0.32653061224489793,0.7947759410048812,F
T8,3,94.3762200494602,160.45914618887988,-1.5198696038174582,0.1544448829532965,-0.8774971248959743,0.24489795918367346,0.7419721841495613,F
C4,4,45.82228382900911,121.4773750362183,-1.4963188871865654,0.16040125345717243,-0.8639001123096984,0.2857142857142857,0.7253294514334309,F
Fz,6,150.40491543482608,98.36899878142432,0.8205575446306694,0.42789804437220647,0.47374911927766405,0.6122448979591837,0.27103279761569643,F
Pz,18,19.89774443048235,11.520645961723988,0.7096810853342513,0.4914623397136342,0.40973456565451183,0.5510204081632654,0.20836545735639578,F
Fp2,8,394.422975375969,480.99144014620464,-0.705479213768699,0.4939797677978056,-0.40730861397685236,0.34693877551020413,0.2061063994225208,F
T7,14,150.3998681389908,121.1450025394613,0.6327103092086301,0.5387927685194474,0.36529546734019785,0.5306122448979592,0.1684769111643673,F
P3,16,58.616577419439054,72.55122800855585,-0.6294352732987386,0.540862688339908,-0.3634046244755246,0.30612244897959184,0.1668526223265376,F
F8,9,219.77042516470982,193.1588738648483,0.5961961802635923,0.562122074940449,0.3442140251645665,0.5510204081632654,0.15072372311545645,F
O1,17,122.50842966396439,151.5447164814058,-0.54948866009616,0.5927492182708449,-0.3172474258228182,0.34693877551020413,0.12919926216790484,F
F3,12,140.27579048721847,119.63638654625545,0.5336126524993479,0.6033534468713049,0.3080814085630288,0.4897959183673469,0.12219942878955863,F
F4,7,130.47646477789152,141.9540959878246,-0.21187475881166953,0.8357607017567179,-0.12232594903427407,0.46938775510204084,0.020090728026332664,F
F7,11,194.20006461008833,202.6879673566675,-0.15503730625074338,0.8793691340626826,-0.08951083049820675,0.3469387755102041,0.010797768993767122,F
P7,15,133.62854678016723,125.64862275124226,0.12820053168209591,0.9001137380797346,0.07401661147684258,0.40816326530612246,0.007393242640426419,F
O2,1,148.82399445135965,145.59092526328067,0.06882658573931842,0.9462612466578558,0.0397370478039495,0.5102040816326531,0.002135419410481434,F
Fp1,10,456.6979813738984,464.97288677896915,-0.05082808142395233,0.9602987819503038,-0.029345606492500686,0.44897959183673464,0.0011650563221593494,F
P4,0,93.26666013113511,92.85735215726736,0.007844307520854112,0.99387011351464,0.0045289130587663155,0.326530612244898,2.776172295230182e-05,F
Fp2,8,417.25130536213203,740.3736026733732,-2.7353617861201576,0.01808603854497829,-1.5792618635467168,0.12244897959183675,1.5506992726099966,M
C3,13,43.88138831481441,183.7507545450433,-2.2060411823989807,0.0476177119905027,-1.273658470500292,0.163265306122449,1.213009768277745,M
Fp1,10,480.2933097607459,787.0701044332693,-1.5553936698309863,0.14581941703037213,-0.898006953972497,0.30612244897959184,0.7670601034550072,M
P3,16,63.91614301530775,118.50450888231872,-1.2771758129318502,0.2256989020478287,-0.7373777993976868,0.2653061224489796,0.5709524396791847,M
C4,4,41.31609165383211,82.59584427269108,-1.2439931105796387,0.23725398119558622,-0.7182197572619446,0.3469387755102041,0.5478192604782207,M
Cz,5,1.8664967940676305,6.110833837845671,-1.2208387409361885,0.24559294206126422,-0.7048515757049267,0.30612244897959184,0.5317450035110358,M
T8,3,120.68283750023579,165.1168749820876,-1.0280179932265414,0.32421781937703786,-0.5935264651203297,0.3673469387755102,0.40109460885645487,M
F8,9,195.87410728888418,249.3913205426824,-1.0171662039564406,0.32914440095297404,-0.5872611816641963,0.3877551020408163,0.39396745182239873,M
P8,2,169.6227056221019,125.89196751215765,0.9157454996199452,0.377835686339144,0.5287059107141245,0.6734693877551021,0.3289419500678911,M
Fz,6,146.30143078977653,108.78792372171964,0.6723348973153753,0.5141081759680063,0.3881727339502097,0.6326530612244898,0.18860995773855319,M
F7,11,201.00418500178685,238.52013996767536,-0.514260175409396,0.6164087096335212,-0.2969082507058839,0.32653061224489793,0.11389141900872399,M
O1,17,127.5385028371243,153.3587402384293,-0.49603882613462713,0.6288275143927258,-0.28638814979701527,0.40816326530612246,0.10629940140862655,M
F3,12,156.08043890773368,180.20076488268916,-0.45019845510159373,0.6605925599042908,-0.2599221992413787,0.3877551020408163,0.08821952826856325,M
F4,7,134.39105780496158,162.11181434356308,-0.4448686159594306,0.6643327122989404,-0.2568450151779555,0.40816326530612246,0.0862144696043218,M
O2,1,154.93189770271383,175.73231145002026,-0.37160210635020746,0.7166675372322198,-0.2145445761325029,0.4285714285714286,0.060787443129091574,M
P4,0,98.47104831102551,118.96992169984233,-0.3141201375492235,0.7588236314414227,-0.18135734597176603,0.3877551020408163,0.04373910611289206,M
P7,15,166.41452945009323,153.96690021334584,0.2050349114295885,0.840981591849214,0.11837696130703142,0.46938775510204084,0.01882411594877133,M
T7,14,139.25324259069436,144.224974271865,-0.11125935680492365,0.9132499576276716,-0.0642356196011043,0.34693877551020413,0.005572442722208568,M
Pz,18,21.752260281257687,20.174846331953116,0.1066899948987928,0.9167978101596952,0.06159749727441729,0.4693877551020408,0.0051250466619137255,M
Cz,5,1.32480471168666,8.341814239112454,-1.6095251188163973,0.13347698618405415,-0.9292597606038051,0.30612244897959184,0.8052249683762935,ET
T7,14,216.9298272279071,133.76228116293296,1.4141693482222897,0.1827294486377467,0.8164710538750551,0.5918367346938775,0.6672777483717863,ET
P7,15,233.92011799101994,143.27757281045024,1.2307587061046426,0.24199227818771812,0.7105788702764337,0.7346938775510203,0.5386242706261845,ET
P4,0,121.35646279703612,63.569017245040605,1.1627363673444682,0.26753830697451797,0.6713061546821164,0.4897959183673469,0.4917060425968891,ET
O1,17,193.27228978967608,890.7506673476119,-1.074014285460023,0.3039385836090486,-0.6200824368237926,0.30612244897959184,0.4316154592547217,ET
F3,12,292.7613421044442,163.16295314514045,1.0150701236395527,0.33010227686425186,0.5860510091293775,0.42857142857142855,0.3925942366571775,ET
Fp1,10,836.573031085561,1123.4429967856433,-0.9908843185359324,0.34130223967371354,-0.5720873280423854,0.34693877551020413,0.3768326416925688,ET
T8,3,157.31284863657103,199.75684587044225,-0.9814695875534716,0.3457355196190537,-0.5666517305746713,0.4489795918367347,0.37074010006140135,ET
C4,4,78.32017332636404,664.2554459343168,-0.9618095436938366,0.3551263157497251,-0.5553009989607351,0.4693877551020408,0.35809900106766734,ET
Pz,18,39.029571374761645,22.421856611112883,0.796695821197037,0.44110572903363154,0.45997254682908534,0.5714285714285714,0.25707602122458545,ET
Fp2,8,810.357417452866,1023.537689407787,-0.7750541457087272,0.4533102435797052,-0.4474777196613751,0.36734693877551017,0.24463148556518613,ET
Fz,6,161.3323249468703,119.6057981090617,0.7661871025631836,0.4583723049232148,0.4423583299140044,0.5918367346938775,0.23959352262933833,ET
P8,2,253.51100878994325,522.8907020851894,-0.7432779642353775,0.47161548000739983,-0.4291317327339439,0.7142857142857143,0.22674656461421772,ET
C3,13,95.06522243129953,143.1762733788552,-0.6590821162694356,0.522289714739794,-0.3805212372459259,0.326530612244898,0.18177890879231778,ET
O2,1,310.3258700694259,239.86571470190452,0.6328409750888939,0.5387102769077392,0.36537090732160876,0.5102040816326532,0.16854184466435299,ET
F8,9,254.44083346385,231.72539038240885,0.4342125642791329,0.671838759698991,0.25069274087179844,0.5918367346938775,0.08226764077894883,ET
F4,7,178.03785468391138,165.11137343726833,0.21541230123672894,0.83306366341134,0.12436835010566255,0.5306122448979592,0.020761596754215194,ET
P3,16,155.1142257946713,132.84201349996383,0.21430154362546278,0.8339102728848717,0.12372705389984452,0.4285714285714286,0.02054979261898394,ET
F7,11,256.21479709234006,268.7260533120672,-0.17618994219584191,0.8630831561635315,-0.10172331055519124,0.46938775510204084,0.013927634625813708,ET
T7,14,397.8360037778345,206.62881854928497,1.8781014896011452,0.08487497957313779,1.0843224005860435,0.6938775510204082,0.9922905589856073,R
Fz,6,199.83633202060466,123.28957523602256,1.1888752128767954,0.2574834117802344,0.686397424186676,0.7142857142857143,0.509661473569926,R
Cz,5,3.7718887342974803,12.771920654935245,-1.1456438542451235,0.2742763995915296,-0.6614377876390012,0.3673469387755102,0.4800210126915892,R
F8,9,512.6403742752367,336.2063187448689,1.0958735838258409,0.29464057003620675,0.6327029086194224,0.5306122448979592,0.44628296296022973,R
T8,3,402.7055000950183,210.72306307882482,1.0904934376934117,0.2969088841796786,0.6295966798016053,0.5918367346938775,0.4426638321184803,R
P7,15,446.78708737640716,226.59674114019035,1.0570562022263392,0.311302095872921,0.6102916829037713,0.5918367346938775,0.4203066029220152,R
O1,17,288.57419078891667,678.2538540321377,-1.0000845214918714,0.3370098027028411,-0.5773990676956244,0.4489795918367347,0.38280992181071766,R
P4,0,162.00804745049535,91.8385146806152,0.9878087430759896,0.34274595383995776,0.5703116437223249,0.5714285714285714,0.3748396354086825,R
Pz,18,69.91162965293556,26.522431955533097,0.9010426271704028,0.38529279201091304,0.520217203347536,0.5714285714285714,0.31978126461765494,R
F3,12,437.0136918394438,208.99884871094704,0.8815858785939005,0.3953161204135316,0.5089838443198476,0.38775510204081637,0.3077743256301605,R
C3,13,112.87139556723538,188.51082786996213,-0.8687315310062896,0.4020349793389718,-0.5015623832796645,0.30612244897959184,0.29991676088061914,R
C4,4,261.57214686833584,768.960409276685,-0.6894986944161333,0.5036248740517606,-0.3980822568270188,0.4897959183673469,0.19759813037027085,R
F7,11,491.86384945897106,387.3321915426169,0.6871433273608604,0.5050559097252871,0.39672238502349727,0.4693877551020408,0.19635539994706924,R
P8,2,309.698147906166,408.9495080517643,-0.5120653082491426,0.6178981833520287,-0.2956410435602232,0.673469387755102,0.11296497982006329,R
Fp1,10,754.1046529193069,828.9276493788454,-0.46162545162985497,0.652606088357684,-0.26651957876318444,0.4693877551020408,0.09258727899580499,R
F4,7,211.77232816953233,178.71617009718466,0.461549708530987,0.6526588798465169,0.2664758484645438,0.4897959183673469,0.09255801969952446,R
O2,1,379.8629027589865,318.30861453057594,0.3255962703085005,0.7503370952350601,0.18798309430969354,0.489795918367347,0.046932405372059734,R
Fp2,8,829.8470599546862,872.1741152017368,-0.20309882111081468,0.8424608666657908,-0.11725915904039202,0.5306122448979591,0.018472906290721562,R
P3,16,387.01213712496485,348.8028047515572,0.1130885290042645,0.9118302508175117,0.06529169266285974,0.40816326530612246,0.005756752165784456,R
